Sample:	'TEST(EM)
File name:	XXX.FDS
Run Date:	16:21:10, 08/12/2010
Operator:	XXX
Comment:	'091217Manual

Instrument
Model:	F-7000 FL Spectrophotometer
Serial Number:	XXX-XXX
ROM Version:	5J14000 06

Instrument Parameters
Measurement type:	Wavelength scan
Scan mode:	Emission
Data mode:	Fluorescence
EX WL:	395.0 nm
EM  Start WL:	200.0 nm
EM  End WL:	900.0 nm
Scan speed:	1200 nm/min
Delay:	0.0 s
EX Slit:	5.0 nm
EM Slit:	5.0 nm
PMT Voltage:	400 V
Response:	Auto 
Corrected spectra:	Off
Shutter control:	Off

Data Points
nm	Data
200.0	-0.030
200.2	-0.036
200.4	-0.046
200.6	-0.043
200.8	-0.039
201.0	-0.046
201.2	-0.038
201.4	-0.035
201.6	-0.039
201.8	-0.035
202.0	-0.040
202.2	-0.041
202.4	-0.037
202.6	-0.039
202.8	-0.045
203.0	-0.035
203.2	-0.027
203.4	-0.030
203.6	-0.030
203.8	-0.020
204.0	-0.022
204.2	-0.018
204.4	-0.020
204.6	-0.033
204.8	-0.043
205.0	-0.043
205.2	-0.043
205.4	-0.047
205.6	-0.044
205.8	-0.045
206.0	-0.040
206.2	-0.035
206.4	-0.046
206.6	-0.056
206.8	-0.049
207.0	-0.046
207.2	-0.048
207.4	-0.034
207.6	-0.042
207.8	-0.043
208.0	-0.028
208.2	-0.032
208.4	-0.040
208.6	-0.044
208.8	-0.042
209.0	-0.043
209.2	-0.040
209.4	-0.045
209.6	-0.045
209.8	-0.049
210.0	-0.043
210.2	-0.041
210.4	-0.047
210.6	-0.051
210.8	-0.042
211.0	-0.042
211.2	-0.026
211.4	-0.028
211.6	-0.030
211.8	-0.040
212.0	-0.039
212.2	-0.050
212.4	-0.044
212.6	-0.038
212.8	-0.044
213.0	-0.043
213.2	-0.039
213.4	-0.036
213.6	-0.043
213.8	-0.043
214.0	-0.046
214.2	-0.042
214.4	-0.039
214.6	-0.045
214.8	-0.046
215.0	-0.044
215.2	-0.041
215.4	-0.050
215.6	-0.046
215.8	-0.043
216.0	-0.043
216.2	-0.044
216.4	-0.040
216.6	-0.039
216.8	-0.039
217.0	-0.033
217.2	-0.045
217.4	-0.054
217.6	-0.052
217.8	-0.050
218.0	-0.048
218.2	-0.049
218.4	-0.048
218.6	-0.038
218.8	-0.036
219.0	-0.039
219.2	-0.040
219.4	-0.048
219.6	-0.048
219.8	-0.060
220.0	-0.058
220.2	-0.059
220.4	-0.045
220.6	-0.042
220.8	-0.038
221.0	-0.039
221.2	-0.042
221.4	-0.047
221.6	-0.053
221.8	-0.045
222.0	-0.047
222.2	-0.048
222.4	-0.052
222.6	-0.050
222.8	-0.051
223.0	-0.042
223.2	-0.046
223.4	-0.051
223.6	-0.051
223.8	-0.057
224.0	-0.060
224.2	-0.062
224.4	-0.064
224.6	-0.057
224.8	-0.055
225.0	-0.060
225.2	-0.058
225.4	-0.069
225.6	-0.065
225.8	-0.061
226.0	-0.056
226.2	-0.058
226.4	-0.056
226.6	-0.055
226.8	-0.040
227.0	-0.045
227.2	-0.046
227.4	-0.045
227.6	-0.050
227.8	-0.054
228.0	-0.044
228.2	-0.054
228.4	-0.051
228.6	-0.050
228.8	-0.055
229.0	-0.055
229.2	-0.061
229.4	-0.050
229.6	-0.042
229.8	-0.047
230.0	-0.055
230.2	-0.057
230.4	-0.052
230.6	-0.043
230.8	-0.046
231.0	-0.043
231.2	-0.042
231.4	-0.047
231.6	-0.047
231.8	-0.043
232.0	-0.043
232.2	-0.037
232.4	-0.041
232.6	-0.051
232.8	-0.059
233.0	-0.058
233.2	-0.055
233.4	-0.050
233.6	-0.061
233.8	-0.058
234.0	-0.058
234.2	-0.050
234.4	-0.043
234.6	-0.042
234.8	-0.051
235.0	-0.056
235.2	-0.064
235.4	-0.062
235.6	-0.053
235.8	-0.048
236.0	-0.042
236.2	-0.050
236.4	-0.048
236.6	-0.050
236.8	-0.053
237.0	-0.056
237.2	-0.058
237.4	-0.058
237.6	-0.052
237.8	-0.056
238.0	-0.060
238.2	-0.051
238.4	-0.048
238.6	-0.050
238.8	-0.046
239.0	-0.052
239.2	-0.055
239.4	-0.056
239.6	-0.045
239.8	-0.045
240.0	-0.045
240.2	-0.056
240.4	-0.055
240.6	-0.056
240.8	-0.063
241.0	-0.054
241.2	-0.051
241.4	-0.051
241.6	-0.055
241.8	-0.045
242.0	-0.045
242.2	-0.042
242.4	-0.050
242.6	-0.051
242.8	-0.058
243.0	-0.061
243.2	-0.046
243.4	-0.048
243.6	-0.054
243.8	-0.053
244.0	-0.054
244.2	-0.057
244.4	-0.060
244.6	-0.054
244.8	-0.046
245.0	-0.043
245.2	-0.043
245.4	-0.043
245.6	-0.040
245.8	-0.042
246.0	-0.049
246.2	-0.045
246.4	-0.047
246.6	-0.052
246.8	-0.049
247.0	-0.048
247.2	-0.052
247.4	-0.054
247.6	-0.053
247.8	-0.055
248.0	-0.052
248.2	-0.056
248.4	-0.057
248.6	-0.049
248.8	-0.048
249.0	-0.048
249.2	-0.045
249.4	-0.046
249.6	-0.046
249.8	-0.034
250.0	-0.038
250.2	-0.043
250.4	-0.038
250.6	-0.031
250.8	-0.028
251.0	-0.028
251.2	-0.035
251.4	-0.034
251.6	-0.044
251.8	-0.041
252.0	-0.053
252.2	-0.056
252.4	-0.054
252.6	-0.048
252.8	-0.049
253.0	-0.057
253.2	-0.052
253.4	-0.053
253.6	-0.058
253.8	-0.057
254.0	-0.049
254.2	-0.056
254.4	-0.046
254.6	-0.049
254.8	-0.054
255.0	-0.051
255.2	-0.050
255.4	-0.050
255.6	-0.049
255.8	-0.055
256.0	-0.041
256.2	-0.031
256.4	-0.039
256.6	-0.032
256.8	-0.023
257.0	-0.038
257.2	-0.039
257.4	-0.036
257.6	-0.031
257.8	-0.034
258.0	-0.036
258.2	-0.031
258.4	-0.039
258.6	-0.047
258.8	-0.048
259.0	-0.057
259.2	-0.055
259.4	-0.061
259.6	-0.054
259.8	-0.051
260.0	-0.050
260.2	-0.046
260.4	-0.046
260.6	-0.051
260.8	-0.046
261.0	-0.047
261.2	-0.051
261.4	-0.049
261.6	-0.053
261.8	-0.052
262.0	-0.053
262.2	-0.050
262.4	-0.054
262.6	-0.050
262.8	-0.053
263.0	-0.052
263.2	-0.047
263.4	-0.054
263.6	-0.054
263.8	-0.043
264.0	-0.036
264.2	-0.038
264.4	-0.044
264.6	-0.048
264.8	-0.043
265.0	-0.044
265.2	-0.047
265.4	-0.060
265.6	-0.050
265.8	-0.050
266.0	-0.049
266.2	-0.047
266.4	-0.042
266.6	-0.042
266.8	-0.038
267.0	-0.038
267.2	-0.033
267.4	-0.041
267.6	-0.041
267.8	-0.046
268.0	-0.043
268.2	-0.046
268.4	-0.042
268.6	-0.033
268.8	-0.025
269.0	-0.024
269.2	-0.032
269.4	-0.038
269.6	-0.034
269.8	-0.036
270.0	-0.043
270.2	-0.040
270.4	-0.044
270.6	-0.049
270.8	-0.050
271.0	-0.049
271.2	-0.041
271.4	-0.043
271.6	-0.044
271.8	-0.051
272.0	-0.049
272.2	-0.056
272.4	-0.045
272.6	-0.038
272.8	-0.036
273.0	-0.030
273.2	-0.031
273.4	-0.036
273.6	-0.026
273.8	-0.032
274.0	-0.037
274.2	-0.049
274.4	-0.050
274.6	-0.042
274.8	-0.035
275.0	-0.043
275.2	-0.046
275.4	-0.045
275.6	-0.042
275.8	-0.048
276.0	-0.052
276.2	-0.049
276.4	-0.048
276.6	-0.047
276.8	-0.047
277.0	-0.031
277.2	-0.035
277.4	-0.032
277.6	-0.026
277.8	-0.041
278.0	-0.045
278.2	-0.041
278.4	-0.038
278.6	-0.035
278.8	-0.043
279.0	-0.047
279.2	-0.041
279.4	-0.041
279.6	-0.048
279.8	-0.046
280.0	-0.049
280.2	-0.055
280.4	-0.041
280.6	-0.052
280.8	-0.053
281.0	-0.047
281.2	-0.049
281.4	-0.045
281.6	-0.050
281.8	-0.043
282.0	-0.050
282.2	-0.048
282.4	-0.045
282.6	-0.044
282.8	-0.045
283.0	-0.041
283.2	-0.055
283.4	-0.051
283.6	-0.052
283.8	-0.055
284.0	-0.045
284.2	-0.051
284.4	-0.050
284.6	-0.051
284.8	-0.041
285.0	-0.040
285.2	-0.024
285.4	-0.037
285.6	-0.041
285.8	-0.045
286.0	-0.039
286.2	-0.046
286.4	-0.040
286.6	-0.039
286.8	-0.047
287.0	-0.045
287.2	-0.044
287.4	-0.049
287.6	-0.048
287.8	-0.050
288.0	-0.048
288.2	-0.057
288.4	-0.056
288.6	-0.039
288.8	-0.038
289.0	-0.033
289.2	-0.047
289.4	-0.053
289.6	-0.051
289.8	-0.048
290.0	-0.044
290.2	-0.045
290.4	-0.050
290.6	-0.042
290.8	-0.037
291.0	-0.040
291.2	-0.040
291.4	-0.039
291.6	-0.035
291.8	-0.043
292.0	-0.041
292.2	-0.044
292.4	-0.057
292.6	-0.054
292.8	-0.050
293.0	-0.052
293.2	-0.051
293.4	-0.045
293.6	-0.050
293.8	-0.047
294.0	-0.040
294.2	-0.040
294.4	-0.051
294.6	-0.055
294.8	-0.042
295.0	-0.057
295.2	-0.054
295.4	-0.058
295.6	-0.050
295.8	-0.051
296.0	-0.048
296.2	-0.052
296.4	-0.042
296.6	-0.045
296.8	-0.048
297.0	-0.053
297.2	-0.057
297.4	-0.064
297.6	-0.056
297.8	-0.058
298.0	-0.055
298.2	-0.064
298.4	-0.056
298.6	-0.052
298.8	-0.064
299.0	-0.057
299.2	-0.054
299.4	-0.053
299.6	-0.059
299.8	-0.043
300.0	-0.046
300.2	-0.047
300.4	-0.050
300.6	-0.042
300.8	-0.054
301.0	-0.046
301.2	-0.048
301.4	-0.057
301.6	-0.054
301.8	-0.066
302.0	-0.060
302.2	-0.055
302.4	-0.047
302.6	-0.052
302.8	-0.055
303.0	-0.055
303.2	-0.059
303.4	-0.057
303.6	-0.045
303.8	-0.055
304.0	-0.053
304.2	-0.050
304.4	-0.035
304.6	-0.045
304.8	-0.053
305.0	-0.058
305.2	-0.063
305.4	-0.052
305.6	-0.048
305.8	-0.035
306.0	-0.045
306.2	-0.043
306.4	-0.046
306.6	-0.044
306.8	-0.041
307.0	-0.053
307.2	-0.051
307.4	-0.045
307.6	-0.047
307.8	-0.052
308.0	-0.048
308.2	-0.050
308.4	-0.050
308.6	-0.048
308.8	-0.048
309.0	-0.044
309.2	-0.053
309.4	-0.055
309.6	-0.051
309.8	-0.055
310.0	-0.059
310.2	-0.055
310.4	-0.054
310.6	-0.054
310.8	-0.050
311.0	-0.044
311.2	-0.042
311.4	-0.040
311.6	-0.040
311.8	-0.047
312.0	-0.046
312.2	-0.051
312.4	-0.053
312.6	-0.052
312.8	-0.050
313.0	-0.052
313.2	-0.056
313.4	-0.061
313.6	-0.043
313.8	-0.055
314.0	-0.042
314.2	-0.047
314.4	-0.055
314.6	-0.054
314.8	-0.051
315.0	-0.052
315.2	-0.053
315.4	-0.053
315.6	-0.041
315.8	-0.047
316.0	-0.042
316.2	-0.055
316.4	-0.053
316.6	-0.053
316.8	-0.056
317.0	-0.049
317.2	-0.054
317.4	-0.054
317.6	-0.048
317.8	-0.056
318.0	-0.049
318.2	-0.034
318.4	-0.041
318.6	-0.044
318.8	-0.040
319.0	-0.034
319.2	-0.041
319.4	-0.035
319.6	-0.045
319.8	-0.050
320.0	-0.052
320.2	-0.040
320.4	-0.052
320.6	-0.049
320.8	-0.056
321.0	-0.062
321.2	-0.054
321.4	-0.059
321.6	-0.059
321.8	-0.053
322.0	-0.047
322.2	-0.051
322.4	-0.060
322.6	-0.067
322.8	-0.059
323.0	-0.051
323.2	-0.041
323.4	-0.035
323.6	-0.040
323.8	-0.036
324.0	-0.019
324.2	-0.036
324.4	-0.036
324.6	-0.047
324.8	-0.039
325.0	-0.036
325.2	-0.046
325.4	-0.053
325.6	-0.041
325.8	-0.047
326.0	-0.042
326.2	-0.041
326.4	-0.040
326.6	-0.031
326.8	-0.037
327.0	-0.042
327.2	-0.037
327.4	-0.045
327.6	-0.052
327.8	-0.054
328.0	-0.066
328.2	-0.054
328.4	-0.046
328.6	-0.033
328.8	-0.041
329.0	-0.048
329.2	-0.045
329.4	-0.040
329.6	-0.046
329.8	-0.044
330.0	-0.047
330.2	-0.046
330.4	-0.044
330.6	-0.046
330.8	-0.049
331.0	-0.047
331.2	-0.049
331.4	-0.039
331.6	-0.040
331.8	-0.040
332.0	-0.039
332.2	-0.043
332.4	-0.041
332.6	-0.035
332.8	-0.031
333.0	-0.030
333.2	-0.039
333.4	-0.049
333.6	-0.040
333.8	-0.046
334.0	-0.036
334.2	-0.044
334.4	-0.053
334.6	-0.049
334.8	-0.047
335.0	-0.055
335.2	-0.048
335.4	-0.044
335.6	-0.037
335.8	-0.042
336.0	-0.040
336.2	-0.040
336.4	-0.049
336.6	-0.046
336.8	-0.044
337.0	-0.034
337.2	-0.036
337.4	-0.037
337.6	-0.036
337.8	-0.038
338.0	-0.042
338.2	-0.048
338.4	-0.041
338.6	-0.030
338.8	-0.026
339.0	-0.031
339.2	-0.028
339.4	-0.035
339.6	-0.034
339.8	-0.042
340.0	-0.043
340.2	-0.045
340.4	-0.038
340.6	-0.035
340.8	-0.034
341.0	-0.035
341.2	-0.031
341.4	-0.031
341.6	-0.037
341.8	-0.040
342.0	-0.033
342.2	-0.027
342.4	-0.024
342.6	-0.038
342.8	-0.028
343.0	-0.040
343.2	-0.039
343.4	-0.048
343.6	-0.042
343.8	-0.047
344.0	-0.044
344.2	-0.047
344.4	-0.044
344.6	-0.037
344.8	-0.045
345.0	-0.036
345.2	-0.030
345.4	-0.029
345.6	-0.030
345.8	-0.036
346.0	-0.028
346.2	-0.017
346.4	-0.024
346.6	-0.032
346.8	-0.043
347.0	-0.043
347.2	-0.037
347.4	-0.029
347.6	-0.032
347.8	-0.029
348.0	-0.042
348.2	-0.040
348.4	-0.036
348.6	-0.037
348.8	-0.040
349.0	-0.030
349.2	-0.035
349.4	-0.034
349.6	-0.030
349.8	-0.036
350.0	-0.042
350.2	-0.043
350.4	-0.038
350.6	-0.033
350.8	-0.028
351.0	-0.029
351.2	-0.032
351.4	-0.032
351.6	-0.034
351.8	-0.040
352.0	-0.036
352.2	-0.030
352.4	-0.035
352.6	-0.038
352.8	-0.041
353.0	-0.037
353.2	-0.032
353.4	-0.031
353.6	-0.042
353.8	-0.039
354.0	-0.039
354.2	-0.034
354.4	-0.032
354.6	-0.032
354.8	-0.027
355.0	-0.025
355.2	-0.019
355.4	-0.029
355.6	-0.033
355.8	-0.047
356.0	-0.049
356.2	-0.044
356.4	-0.037
356.6	-0.030
356.8	-0.037
357.0	-0.020
357.2	-0.023
357.4	-0.024
357.6	-0.032
357.8	-0.031
358.0	-0.043
358.2	-0.048
358.4	-0.036
358.6	-0.030
358.8	-0.022
359.0	-0.024
359.2	-0.026
359.4	-0.034
359.6	-0.044
359.8	-0.045
360.0	-0.043
360.2	-0.041
360.4	-0.037
360.6	-0.041
360.8	-0.037
361.0	-0.033
361.2	-0.031
361.4	-0.038
361.6	-0.039
361.8	-0.043
362.0	-0.047
362.2	-0.050
362.4	-0.044
362.6	-0.037
362.8	-0.042
363.0	-0.050
363.2	-0.061
363.4	-0.061
363.6	-0.054
363.8	-0.050
364.0	-0.050
364.2	-0.053
364.4	-0.045
364.6	-0.043
364.8	-0.040
365.0	-0.038
365.2	-0.037
365.4	-0.042
365.6	-0.043
365.8	-0.040
366.0	-0.043
366.2	-0.039
366.4	-0.037
366.6	-0.039
366.8	-0.042
367.0	-0.044
367.2	-0.058
367.4	-0.063
367.6	-0.051
367.8	-0.048
368.0	-0.038
368.2	-0.038
368.4	-0.045
368.6	-0.044
368.8	-0.048
369.0	-0.042
369.2	-0.046
369.4	-0.048
369.6	-0.054
369.8	-0.047
370.0	-0.043
370.2	-0.045
370.4	-0.040
370.6	-0.043
370.8	-0.039
371.0	-0.043
371.2	-0.047
371.4	-0.048
371.6	-0.049
371.8	-0.058
372.0	-0.054
372.2	-0.053
372.4	-0.047
372.6	-0.043
372.8	-0.040
373.0	-0.044
373.2	-0.045
373.4	-0.047
373.6	-0.049
373.8	-0.045
374.0	-0.037
374.2	-0.032
374.4	-0.040
374.6	-0.041
374.8	-0.036
375.0	-0.037
375.2	-0.038
375.4	-0.023
375.6	-0.023
375.8	-0.027
376.0	-0.022
376.2	-0.023
376.4	-0.021
376.6	-0.024
376.8	-0.022
377.0	-0.020
377.2	-0.034
377.4	-0.028
377.6	-0.033
377.8	-0.035
378.0	-0.036
378.2	-0.029
378.4	-0.029
378.6	-0.028
378.8	-0.029
379.0	-0.020
379.2	-0.031
379.4	-0.025
379.6	-0.022
379.8	-0.027
380.0	-0.024
380.2	-0.021
380.4	-0.028
380.6	-0.030
380.8	-0.033
381.0	-0.037
381.2	-0.046
381.4	-0.052
381.6	-0.047
381.8	-0.037
382.0	-0.036
382.2	-0.041
382.4	-0.037
382.6	-0.046
382.8	-0.034
383.0	-0.041
383.2	-0.034
383.4	-0.032
383.6	-0.040
383.8	-0.032
384.0	-0.034
384.2	-0.038
384.4	-0.048
384.6	-0.056
384.8	-0.043
385.0	-0.042
385.2	-0.044
385.4	-0.046
385.6	-0.044
385.8	-0.044
386.0	-0.039
386.2	-0.031
386.4	-0.042
386.6	-0.036
386.8	-0.037
387.0	-0.048
387.2	-0.037
387.4	-0.045
387.6	-0.042
387.8	-0.049
388.0	-0.046
388.2	-0.044
388.4	-0.044
388.6	-0.043
388.8	-0.031
389.0	-0.042
389.2	-0.048
389.4	-0.050
389.6	-0.051
389.8	-0.058
390.0	-0.061
390.2	-0.049
390.4	-0.043
390.6	-0.039
390.8	-0.038
391.0	-0.036
391.2	-0.047
391.4	-0.040
391.6	-0.032
391.8	-0.035
392.0	-0.040
392.2	-0.034
392.4	-0.041
392.6	-0.046
392.8	-0.033
393.0	-0.034
393.2	-0.037
393.4	-0.031
393.6	-0.025
393.8	-0.019
394.0	-0.021
394.2	-0.021
394.4	-0.030
394.6	-0.020
394.8	-0.029
395.0	-0.028
395.2	-0.032
395.4	-0.024
395.6	-0.035
395.8	-0.034
396.0	-0.037
396.2	-0.040
396.4	-0.037
396.6	-0.031
396.8	-0.030
397.0	-0.032
397.2	-0.038
397.4	-0.042
397.6	-0.037
397.8	-0.039
398.0	-0.040
398.2	-0.037
398.4	-0.042
398.6	-0.031
398.8	-0.020
399.0	-0.032
399.2	-0.025
399.4	-0.023
399.6	-0.034
399.8	-0.040
400.0	-0.042
400.2	-0.041
400.4	-0.041
400.6	-0.055
400.8	-0.054
401.0	-0.059
401.2	-0.052
401.4	-0.054
401.6	-0.050
401.8	-0.054
402.0	-0.046
402.2	-0.048
402.4	-0.028
402.6	-0.046
402.8	-0.036
403.0	-0.036
403.2	-0.030
403.4	-0.039
403.6	-0.044
403.8	-0.042
404.0	-0.043
404.2	-0.043
404.4	-0.046
404.6	-0.043
404.8	-0.037
405.0	-0.035
405.2	-0.038
405.4	-0.045
405.6	-0.053
405.8	-0.046
406.0	-0.048
406.2	-0.043
406.4	-0.046
406.6	-0.039
406.8	-0.037
407.0	-0.036
407.2	-0.036
407.4	-0.036
407.6	-0.041
407.8	-0.048
408.0	-0.047
408.2	-0.044
408.4	-0.045
408.6	-0.044
408.8	-0.038
409.0	-0.041
409.2	-0.044
409.4	-0.056
409.6	-0.048
409.8	-0.051
410.0	-0.049
410.2	-0.060
410.4	-0.058
410.6	-0.059
410.8	-0.054
411.0	-0.038
411.2	-0.031
411.4	-0.037
411.6	-0.034
411.8	-0.037
412.0	-0.040
412.2	-0.035
412.4	-0.034
412.6	-0.030
412.8	-0.029
413.0	-0.034
413.2	-0.029
413.4	-0.027
413.6	-0.032
413.8	-0.021
414.0	-0.014
414.2	-0.010
414.4	-0.005
414.6	-0.005
414.8	-0.015
415.0	-0.009
415.2	-0.002
415.4	0.007
415.6	0.000
415.8	0.005
416.0	0.022
416.2	0.015
416.4	0.023
416.6	0.032
416.8	0.047
417.0	0.048
417.2	0.061
417.4	0.088
417.6	0.109
417.8	0.142
418.0	0.160
418.2	0.172
418.4	0.196
418.6	0.238
418.8	0.285
419.0	0.308
419.2	0.332
419.4	0.366
419.6	0.422
419.8	0.463
420.0	0.496
420.2	0.512
420.4	0.583
420.6	0.615
420.8	0.667
421.0	0.754
421.2	0.807
421.4	0.890
421.6	0.961
421.8	1.002
422.0	1.087
422.2	1.161
422.4	1.258
422.6	1.360
422.8	1.455
423.0	1.563
423.2	1.689
423.4	1.797
423.6	2.021
423.8	2.156
424.0	2.297
424.2	2.419
424.4	2.533
424.6	2.759
424.8	2.904
425.0	3.124
425.2	3.254
425.4	3.481
425.6	3.687
425.8	3.873
426.0	4.094
426.2	4.290
426.4	4.494
426.6	4.733
426.8	5.019
427.0	5.170
427.2	5.357
427.4	5.620
427.6	5.854
427.8	6.156
428.0	6.420
428.2	6.573
428.4	6.785
428.6	6.958
428.8	7.260
429.0	7.427
429.2	7.667
429.4	7.939
429.6	8.210
429.8	8.371
430.0	8.662
430.2	8.831
430.4	9.030
430.6	9.213
430.8	9.401
431.0	9.597
431.2	9.771
431.4	9.901
431.6	10.02
431.8	10.18
432.0	10.40
432.2	10.51
432.4	10.51
432.6	10.70
432.8	10.93
433.0	10.98
433.2	10.85
433.4	10.85
433.6	11.06
433.8	11.25
434.0	11.47
434.2	11.50
434.4	11.64
434.6	11.78
434.8	11.80
435.0	11.84
435.2	11.91
435.4	12.04
435.6	12.24
435.8	12.23
436.0	12.38
436.2	12.42
436.4	12.53
436.6	12.60
436.8	12.68
437.0	12.76
437.2	12.79
437.4	12.80
437.6	12.88
437.8	12.92
438.0	12.95
438.2	12.98
438.4	13.14
438.6	13.20
438.8	13.23
439.0	13.36
439.2	13.31
439.4	13.29
439.6	13.22
439.8	13.21
440.0	13.34
440.2	13.29
440.4	13.38
440.6	13.42
440.8	13.43
441.0	13.38
441.2	13.41
441.4	13.58
441.6	13.50
441.8	13.40
442.0	13.49
442.2	13.40
442.4	13.45
442.6	13.41
442.8	13.34
443.0	13.32
443.2	13.30
443.4	13.33
443.6	13.37
443.8	13.30
444.0	13.30
444.2	13.33
444.4	13.39
444.6	13.42
444.8	13.27
445.0	13.23
445.2	13.26
445.4	13.10
445.6	13.02
445.8	13.00
446.0	12.91
446.2	12.99
446.4	12.95
446.6	12.93
446.8	12.89
447.0	12.86
447.2	12.77
447.4	12.77
447.6	12.77
447.8	12.70
448.0	12.69
448.2	12.68
448.4	12.74
448.6	12.69
448.8	12.64
449.0	12.58
449.2	12.63
449.4	12.53
449.6	12.39
449.8	12.34
450.0	12.34
450.2	12.33
450.4	12.33
450.6	12.22
450.8	12.16
451.0	12.03
451.2	12.03
451.4	12.03
451.6	12.05
451.8	11.91
452.0	11.90
452.2	11.88
452.4	11.73
452.6	11.72
452.8	11.64
453.0	11.57
453.2	11.55
453.4	11.41
453.6	11.39
453.8	11.20
454.0	11.29
454.2	11.17
454.4	11.13
454.6	11.18
454.8	11.12
455.0	11.06
455.2	10.98
455.4	10.95
455.6	10.88
455.8	10.81
456.0	10.71
456.2	10.59
456.4	10.63
456.6	10.63
456.8	10.54
457.0	10.60
457.2	10.56
457.4	10.45
457.6	10.40
457.8	10.35
458.0	10.31
458.2	10.38
458.4	10.39
458.6	10.43
458.8	10.40
459.0	10.58
459.2	10.61
459.4	10.58
459.6	10.59
459.8	10.56
460.0	10.43
460.2	10.44
460.4	10.43
460.6	10.47
460.8	10.39
461.0	10.52
461.2	10.50
461.4	10.39
461.6	10.27
461.8	10.26
462.0	10.34
462.2	10.29
462.4	10.27
462.6	10.16
462.8	10.18
463.0	10.15
463.2	10.19
463.4	10.13
463.6	10.08
463.8	10.05
464.0	10.06
464.2	9.967
464.4	9.922
464.6	9.973
464.8	10.01
465.0	9.843
465.2	9.862
465.4	9.805
465.6	9.788
465.8	9.753
466.0	9.708
466.2	9.723
466.4	9.761
466.6	9.724
466.8	9.768
467.0	9.927
467.2	9.927
467.4	9.945
467.6	9.900
467.8	9.935
468.0	9.917
468.2	9.955
468.4	9.881
468.6	9.860
468.8	9.751
469.0	9.756
469.2	9.666
469.4	9.593
469.6	9.594
469.8	9.567
470.0	9.539
470.2	9.474
470.4	9.365
470.6	9.324
470.8	9.172
471.0	9.176
471.2	9.172
471.4	9.072
471.6	8.948
471.8	8.808
472.0	8.760
472.2	8.524
472.4	8.480
472.6	8.393
472.8	8.343
473.0	8.149
473.2	8.030
473.4	7.964
473.6	7.917
473.8	7.803
474.0	7.642
474.2	7.542
474.4	7.429
474.6	7.346
474.8	7.241
475.0	7.301
475.2	7.280
475.4	7.196
475.6	7.082
475.8	6.997
476.0	6.871
476.2	6.793
476.4	6.722
476.6	6.727
476.8	6.636
477.0	6.621
477.2	6.607
477.4	6.520
477.6	6.416
477.8	6.354
478.0	6.275
478.2	6.181
478.4	6.169
478.6	6.207
478.8	6.246
479.0	6.224
479.2	6.188
479.4	6.129
479.6	6.023
479.8	6.030
480.0	6.019
480.2	6.108
480.4	6.149
480.6	6.101
480.8	6.076
481.0	6.123
481.2	6.167
481.4	6.102
481.6	6.088
481.8	6.081
482.0	6.069
482.2	6.042
482.4	6.081
482.6	6.052
482.8	6.061
483.0	6.006
483.2	5.956
483.4	5.924
483.6	5.986
483.8	5.984
484.0	5.918
484.2	5.889
484.4	5.867
484.6	5.842
484.8	5.798
485.0	5.729
485.2	5.772
485.4	5.767
485.6	5.714
485.8	5.644
486.0	5.645
486.2	5.533
486.4	5.563
486.6	5.505
486.8	5.437
487.0	5.447
487.2	5.451
487.4	5.460
487.6	5.386
487.8	5.341
488.0	5.304
488.2	5.364
488.4	5.423
488.6	5.401
488.8	5.299
489.0	5.288
489.2	5.276
489.4	5.332
489.6	5.313
489.8	5.362
490.0	5.315
490.2	5.340
490.4	5.372
490.6	5.338
490.8	5.403
491.0	5.420
491.2	5.409
491.4	5.408
491.6	5.388
491.8	5.325
492.0	5.366
492.2	5.391
492.4	5.443
492.6	5.389
492.8	5.368
493.0	5.331
493.2	5.411
493.4	5.313
493.6	5.481
493.8	5.436
494.0	5.459
494.2	5.335
494.4	5.267
494.6	5.204
494.8	5.162
495.0	5.126
495.2	5.090
495.4	5.053
495.6	5.092
495.8	5.094
496.0	5.044
496.2	4.950
496.4	4.955
496.6	4.954
496.8	4.889
497.0	4.868
497.2	4.811
497.4	4.767
497.6	4.727
497.8	4.706
498.0	4.681
498.2	4.641
498.4	4.634
498.6	4.632
498.8	4.642
499.0	4.567
499.2	4.624
499.4	4.554
499.6	4.520
499.8	4.513
500.0	4.487
500.2	4.523
500.4	4.507
500.6	4.531
500.8	4.560
501.0	4.537
501.2	4.466
501.4	4.444
501.6	4.442
501.8	4.455
502.0	4.490
502.2	4.464
502.4	4.588
502.6	4.523
502.8	4.548
503.0	4.583
503.2	4.551
503.4	4.504
503.6	4.521
503.8	4.537
504.0	4.564
504.2	4.556
504.4	4.513
504.6	4.512
504.8	4.495
505.0	4.480
505.2	4.488
505.4	4.528
505.6	4.549
505.8	4.582
506.0	4.565
506.2	4.635
